# Histogram: DecayTime
0 100 3.76702e+06
100 200 3.36991e+06
200 300 2.97562e+06
300 400 2.63068e+06
400 500 2.32534e+06
500 600 2.05628e+06
600 700 1.81948e+06
700 800 1.60684e+06
800 900 1.42263e+06
900 1000 1.25507e+06
1000 1100 1.10995e+06
1100 1200 981144
1200 1300 867177
1300 1400 766192
1400 1500 676310
1500 1600 598910
1600 1700 528204
1700 1800 467839
1800 1900 414144
1900 2000 365208
2000 2100 321848
2100 2200 284443
2200 2300 252262
2300 2400 223747
2400 2500 197085
2500 2600 174469
2600 2700 153701
2700 2800 136051
2800 2900 120349
2900 3000 105842
3000 3100 93690
3100 3200 83203
3200 3300 73325
3300 3400 65043
3400 3500 57162
3500 3600 50249
3600 3700 44896
3700 3800 39664
3800 3900 34941
3900 4000 31114
4000 4100 27305
4100 4200 24166
4200 4300 21416
4300 4400 19302
4400 4500 16587
4500 4600 14863
4600 4700 13027
4700 4800 11730
4800 4900 10149
4900 5000 9013

# Histogram: PrimaryParticleSpectrum_nm
0 10 0
10 20 0
20 30 0
30 40 0
40 50 0
50 60 0
60 70 0
70 80 0
80 90 0
90 100 0
100 110 151314
110 120 626307
120 130 530056
130 140 453741
140 150 392983
150 160 343627
160 170 304237
170 180 270248
180 190 240892
190 200 217249
200 210 197120
210 220 178884
220 230 163633
230 240 149427
240 250 137022
250 260 127454
260 270 702893
270 280 655007
280 290 1.97645e+06
290 300 1.84953e+06
300 310 5.16349e+06
310 320 4.85646e+06
320 330 6.02958e+06
330 340 5.68029e+06
340 350 3.33507e+06
350 360 3.13971e+06
360 370 2.97024e+06
370 380 2.81559e+06
380 390 1.09336e+06
390 400 1.03026e+06
400 410 356556
410 420 335883
420 430 319564
430 440 304622
440 450 291647
450 460 279882
460 470 77865
470 480 72696
480 490 70323
490 500 67371
500 510 64816
510 520 62459
520 530 59659
530 540 57579
540 550 55668
550 560 53412
560 570 51442
570 580 49846
580 590 47847
590 600 46870
600 610 45136
610 620 43572
620 630 42092
630 640 41037
640 650 39711
650 660 38462
660 670 37135
670 680 36264
680 690 35077
690 700 34170
700 710 33183
710 720 32401
720 730 31319
730 740 30735
740 750 29606
750 760 28951
760 770 28323
770 780 27609
780 790 26661
790 800 26419

# Histogram: TotalEnergy
40000 40400 0
40400 40800 0
40800 41200 0
41200 41600 0
41600 42000 0
42000 42400 0
42400 42800 0
42800 43200 0
43200 43600 0
43600 44000 0
44000 44400 0
44400 44800 0
44800 45200 0
45200 45600 0
45600 46000 0
46000 46400 0
46400 46800 0
46800 47200 0
47200 47600 0
47600 48000 0
48000 48400 0
48400 48800 0
48800 49200 0
49200 49600 0
49600 50000 0
50000 50400 0
50400 50800 0
50800 51200 0
51200 51600 0
51600 52000 0
52000 52400 0
52400 52800 0
52800 53200 0
53200 53600 0
53600 54000 0
54000 54400 0
54400 54800 0
54800 55200 0
55200 55600 0
55600 56000 0
56000 56400 0
56400 56800 0
56800 57200 0
57200 57600 0
57600 58000 0
58000 58400 0
58400 58800 0
58800 59200 0
59200 59600 0
59600 60000 0

# Histogram: TotalEnergyTime
40000 40400 0
40400 40800 0
40800 41200 0
41200 41600 0
41600 42000 0
42000 42400 0
42400 42800 0
42800 43200 0
43200 43600 0
43600 44000 0
44000 44400 0
44400 44800 0
44800 45200 0
45200 45600 0
45600 46000 0
46000 46400 0
46400 46800 0
46800 47200 0
47200 47600 0
47600 48000 0
48000 48400 0
48400 48800 0
48800 49200 0
49200 49600 0
49600 50000 0
50000 50400 0
50400 50800 0
50800 51200 0
51200 51600 0
51600 52000 0
52000 52400 0
52400 52800 0
52800 53200 0
53200 53600 0
53600 54000 0
54000 54400 0
54400 54800 0
54800 55200 0
55200 55600 0
55600 56000 0
56000 56400 0
56400 56800 0
56800 57200 0
57200 57600 0
57600 58000 0
58000 58400 0
58400 58800 0
58800 59200 0
59200 59600 0
59600 60000 0

# Histogram: Yield
40000 40400 0
40400 40800 0
40800 41200 0
41200 41600 0
41600 42000 0
42000 42400 0
42400 42800 0
42800 43200 0
43200 43600 0
43600 44000 0
44000 44400 0
44400 44800 0
44800 45200 0
45200 45600 0
45600 46000 0
46000 46400 0
46400 46800 0
46800 47200 0
47200 47600 0
47600 48000 0
48000 48400 0
48400 48800 0
48800 49200 0
49200 49600 0
49600 50000 0
50000 50400 1
50400 50800 103
50800 51200 551
51200 51600 320
51600 52000 25
52000 52400 0
52400 52800 0
52800 53200 0
53200 53600 0
53600 54000 0
54000 54400 0
54400 54800 0
54800 55200 0
55200 55600 0
55600 56000 0
56000 56400 0
56400 56800 0
56800 57200 0
57200 57600 0
57600 58000 0
58000 58400 0
58400 58800 0
58800 59200 0
59200 59600 0
59600 60000 0

